v/(nD)	v/(ΩR)	Ct	Cp	Cs	Tc	Pc	η	η*	stalled	v	rpm	Power	Thrust	Torque
[-]	[-]	[-]	[-]	[-]	[-]	[-]	[%]	[%]	[%]	[m/s]	[1/min]	[MW]	[kN]	[kNm]
0.000	0.000	0.017883	0.547507	0.000035	9.999999	9.999999	0.00	0.03	98.00 !	0.00	2400	1.892	0.7240	7.527
0.100	0.032	0.007801	0.149363	0.146269	1.986475	9.999999	0.52	73.24	98.00	8.53	2400	0.516	0.3158	2.053
0.200	0.064	0.011580	0.176462	0.282944	0.737180	9.999999	1.31	86.15	98.00	17.07	2400	0.610	0.4688	2.426
0.300	0.095	0.014562	0.194157	0.416381	0.412017	9.999999	2.25	91.22	98.00	25.60	2400	0.671	0.5895	2.669
0.400	0.127	0.016992	0.209729	0.546674	0.270433	8.344837	3.24	93.82	98.00	34.14	2400	0.725	0.6879	2.883
0.500	0.159	0.018888	0.224764	0.673945	0.192390	4.578854	4.20	95.37	98.00	42.67	2400	0.777	0.7647	3.090
0.600	0.191	0.020457	0.240004	0.798192	0.144700	2.829468	5.11	96.37	98.00	51.21	2400	0.829	0.8282	3.299
0.700	0.223	0.021658	0.255920	0.919342	0.112555	1.899987	5.92	97.06	98.00	59.74	2400	0.884	0.8768	3.518
0.800	0.255	0.022572	0.272429	1.037622	0.089809	1.354951	6.63	97.57	97.00	68.28	2400	0.941	0.9138	3.745
0.900	0.286	0.023233	0.290892	1.152116	0.073041	1.016119	7.19	97.94	97.00	76.81	2400	1.005	0.9406	3.999
1.000	0.318	0.024026	0.310143	1.263827	0.061182	0.789772	7.75	98.21	97.00	85.34	2400	1.072	0.9727	4.264
1.100	0.350	0.024250	0.330206	1.372890	0.051035	0.631752	8.08	98.45	95.00	93.88	2400	1.141	0.9817	4.539
1.200	0.382	0.024633	0.351351	1.479220	0.043561	0.517772	8.41	98.62	95.00	102.41	2400	1.214	0.9973	4.830
1.300	0.414	0.025072	0.373778	1.582780	0.037779	0.433235	8.72	98.75	95.00	110.95	2400	1.291	1.0150	5.138
1.400	0.446	0.025349	0.397427	1.683746	0.032934	0.368819	8.93	98.87	95.00	119.48	2400	1.373	1.0262	5.464
1.500	0.477	0.025929	0.422181	1.782344	0.029346	0.318540	9.21	98.94	92.00	128.02	2400	1.459	1.0497	5.804
1.600	0.509	0.026214	0.448281	1.878494	0.026075	0.278696	9.36	99.02	92.00	136.55	2400	1.549	1.0612	6.163
1.700	0.541	0.026932	0.475585	1.972437	0.023731	0.246503	9.63	99.07	92.00	145.08	2400	1.643	1.0903	6.538
1.800	0.573	0.027650	0.504501	2.063955	0.021732	0.220285	9.87	99.11	90.00	153.62	2400	1.743	1.1194	6.936
1.900	0.605	0.028147	0.534684	2.153447	0.019855	0.198507	10.00	99.15	90.00	162.15	2400	1.847	1.1395	7.351
2.000	0.637	0.029352	0.566362	2.240842	0.018686	0.180279	10.37	99.16	90.00	170.69	2400	1.957	1.1883	7.786
2.100	0.668	0.030350	0.599839	2.326014	0.017525	0.164936	10.63	99.18	90.00	179.22	2400	2.073	1.2287	8.246
2.200	0.700	0.031597	0.634524	2.409534	0.016624	0.151747	10.96	99.18	86.00	187.76	2400	2.192	1.2792	8.723
2.300	0.732	0.033318	0.671612	2.490601	0.016039	0.140564	11.41	99.17	86.00	196.29	2400	2.320	1.3489	9.233
2.400	0.764	0.036104	0.715056	2.566512	0.015961	0.131718	12.12	99.14	86.00	204.83	2400	2.471	1.4616	9.830
2.500	0.796	0.039639	0.759903	2.641121	0.016150	0.123845	13.04	99.09	86.00	213.36	2400	2.626	1.6048	10.447
2.600	0.828	0.042828	0.806455	2.714297	0.016133	0.116842	13.81	99.05	86.00	221.89	2400	2.786	1.7339	11.087
2.700	0.859	0.045709	0.853917	2.786639	0.015967	0.110475	14.45	99.02	82.00	230.43	2400	2.950	1.8505	11.739
2.800	0.891	0.049790	0.903522	2.857395	0.016172	0.104810	15.43	98.96	73.00	238.96	2400	3.122	2.0157	12.421
2.900	0.923	0.052564	0.952449	2.928395	0.015916	0.099446	16.00	98.93	73.00	247.50	2400	3.291	2.1280	13.094
3.000	0.955	0.055608	1.001274	2.999236	0.015734	0.094434	16.66	98.90	73.00	256.03	2400	3.460	2.2513	13.765
3.100	0.987	0.058376	1.051021	3.069300	0.015469	0.089839	17.22	98.87	69.00	264.57	2400	3.631	2.3633	14.449
3.200	1.019	0.061065	1.101222	3.138882	0.015186	0.085579	17.74	98.84	69.00	273.10	2400	3.805	2.4722	15.139
3.300	1.050	0.064055	1.151118	3.208411	0.014978	0.081568	18.36	98.81	69.00	281.64	2400	3.977	2.5932	15.825
3.400	1.082	0.066853	1.202349	3.276972	0.014727	0.077899	18.90	98.78	69.00	290.17	2400	4.154	2.7065	16.529
3.500	1.114	0.069957	1.253139	3.345555	0.014542	0.074428	19.54	98.74	69.00	298.70	2400	4.330	2.8321	17.227
3.600	1.146	0.073589	1.300964	3.415462	0.014459	0.071006	20.36	98.70	64.00	307.24	2400	4.495	2.9792	17.885
3.700	1.178	0.078272	1.343583	3.487778	0.014559	0.067546	21.55	98.63	64.00	315.77	2400	4.642	3.1688	18.471
3.800	1.210	0.082892	1.387388	3.559131	0.014618	0.064385	22.70	98.57	64.00	324.31	2400	4.794	3.3558	19.073
3.900	1.241	0.087433	1.432502	3.629490	0.014638	0.061495	23.80	98.51	64.00	332.84	2400	4.949	3.5397	19.693
4.000	1.273	0.091713	1.478950	3.698872	0.014597	0.058846	24.80	98.46	59.00	341.38	2400	5.110	3.7129	20.332
4.100	1.305	0.095927	1.526441	3.767453	0.014532	0.056399	25.77	98.41	59.00	349.91	2400	5.274	3.8835	20.985
4.200	1.337	0.100044	1.574800	3.835343	0.014442	0.054127	26.68	98.36	59.00	358.44	2400	5.441	4.0502	21.649
4.300	1.369	0.104089	1.624283	3.902439	0.014335	0.052023	27.56	98.31	59.00	366.98	2400	5.612	4.2140	22.330
4.400	1.401	0.108062	1.675014	3.968707	0.014214	0.050073	28.39	98.26	59.00	375.51	2400	5.787	4.3748	23.027
4.500	1.432	0.111692	1.726936	4.034198	0.014046	0.048259	29.10	98.22	53.00	384.05	2400	5.967	4.5218	23.741
4.600	1.464	0.115356	1.779841	4.099035	0.013882	0.046564	29.81	98.17	53.00	392.58	2400	6.150	4.6701	24.468
4.700	1.496	0.118948	1.833875	4.163168	0.013712	0.044980	30.48	98.13	53.00	401.12	2400	6.336	4.8155	25.211
4.800	1.528	0.122471	1.889136	4.226575	0.013536	0.043499	31.12	98.09	53.00	409.65	2400	6.527	4.9582	25.971
4.900	1.560	0.125924	1.945494	4.289336	0.013355	0.042110	31.72	98.05	53.00	418.19	2400	6.722	5.0980	26.745
5.000	1.592	0.128959	2.002858	4.351510	0.013136	0.040802	32.19	98.02	47.00	426.72	2400	6.920	5.2208	27.534
5.100	1.623	0.132111	2.061230	4.413111	0.012934	0.039569	32.69	97.98	47.00	435.25	2400	7.122	5.3484	28.337
5.200	1.655	0.135196	2.120585	4.474167	0.012732	0.038405	33.15	97.95	47.00	443.79	2400	7.327	5.4733	29.153
5.300	1.687	0.138211	2.181062	4.534634	0.012529	0.037306	33.59	97.91	47.00	452.32	2400	7.536	5.5954	29.984
5.400	1.719	0.140893	2.241986	4.594806	0.012304	0.036257	33.94	97.88	47.00	460.86	2400	7.746	5.7040	30.821
5.500	1.751	0.143627	2.303529	4.654617	0.012091	0.035257	34.29	97.85	47.00	469.39	2400	7.959	5.8146	31.668
5.600	1.783	0.146308	2.366022	4.713942	0.011880	0.034308	34.63	97.82	40.00	477.93	2400	8.175	5.9232	32.527
5.700	1.814	0.148942	2.429416	4.772814	0.011674	0.033405	34.95	97.79	40.00	486.46	2400	8.394	6.0298	33.398
5.800	1.846	0.151530	2.493734	4.831233	0.011471	0.032547	35.24	97.77	40.00	495.00	2400	8.616	6.1346	34.282
5.900	1.878	0.153531	2.559046	4.889184	0.011231	0.031729	35.40	97.75	40.00	503.53	2400	8.842	6.2156	35.180
6.000	1.910	0.155650	2.624665	4.946938	0.011010	0.030943	35.58	97.72	40.00	512.06	2400	9.068	6.3014	36.082
6.100	1.942	0.157755	2.690901	5.004380	0.010796	0.030189	35.76	97.70	40.00	520.60	2400	9.297	6.3866	36.993
6.200	1.974	0.159803	2.757968	5.061437	0.010586	0.029468	35.92	97.68	40.00	529.13	2400	9.529	6.4695	37.915
6.300	2.005	0.161793	2.825698	5.118178	0.010381	0.028777	36.07	97.66	40.00	537.67	2400	9.763	6.5501	38.846
6.400	2.037	0.163723	2.894234	5.174558	0.010179	0.028115	36.20	97.64	33.00	546.20	2400	10.000	6.6282	39.788
6.500	2.069	0.165597	2.963520	5.230603	0.009981	0.027479	36.32	97.62	33.00	554.74	2400	10.239	6.7041	40.741
6.600	2.101	0.167411	3.033618	5.286299	0.009787	0.026870	36.42	97.60	33.00	563.27	2400	10.481	6.7775	41.704
6.700	2.133	0.169143	3.103926	5.341860	0.009595	0.026280	36.51	97.58	33.00	571.80	2400	10.724	6.8476	42.671
6.800	2.165	0.170814	3.174681	5.397205	0.009407	0.025711	36.59	97.57	25.00	580.34	2400	10.969	6.9153	43.644
6.900	2.196	0.172437	3.246290	5.452198	0.009223	0.025164	36.65	97.55	25.00	588.87	2400	11.216	6.9810	44.628
7.000	2.228	0.174019	3.318651	5.506882	0.009044	0.024638	36.71	97.54	25.00	597.41	2400	11.466	7.0451	45.623
7.100	2.260	0.175557	3.391779	5.561255	0.008868	0.024132	36.75	97.52	25.00	605.94	2400	11.719	7.1073	46.628
7.200	2.292	0.177052	3.465782	5.615291	0.008697	0.023645	36.78	97.50	17.00	614.48	2400	11.975	7.1678	47.646
7.300	2.324	0.178505	3.540523	5.669038	0.008530	0.023176	36.81	97.49	17.00	623.01	2400	12.233	7.2267	48.673
7.400	2.355	0.179923	3.616221	5.722433	0.008367	0.022725	36.82	97.48	17.00	631.55	2400	12.494	7.2841	49.714
7.500	2.387	0.181299	3.692584	5.775575	0.008208	0.022289	36.82	97.46	17.00	640.08	2400	12.758	7.3398	50.763
7.600	2.419	0.182632	3.769857	5.828390	0.008052	0.021869	36.82	97.45	9.00	648.61	2400	13.025	7.3938	51.826
7.620	2.426	0.182894	3.785417	5.838916	0.008021	0.021787	36.82	97.45	9.00	650.32	2400	13.079	7.4044	52.040
7.640	2.432	0.183156	3.800986	5.849438	0.007990	0.021705	36.81	97.44	9.00	652.03	2400	13.133	7.4149	52.254
7.660	2.438	0.183417	3.816674	5.859921	0.007960	0.021624	36.81	97.44	9.00	653.74	2400	13.187	7.4255	52.469
7.680	2.445	0.183677	3.832283	5.870427	0.007930	0.021543	36.81	97.44	9.00	655.44	2400	13.241	7.4361	52.684
7.700	2.451	0.183934	3.847951	5.880914	0.007900	0.021463	36.81	97.44	9.00	657.15	2400	13.295	7.4465	52.899
7.720	2.457	0.184189	3.863672	5.891383	0.007870	0.021384	36.80	97.43	9.00	658.86	2400	13.349	7.4568	53.115
7.740	2.464	0.184444	3.879407	5.901846	0.007840	0.021305	36.80	97.43	9.00	660.56	2400	13.404	7.4671	53.332
7.760	2.470	0.184694	3.895195	5.912292	0.007810	0.021227	36.79	97.43	9.00	662.27	2400	13.458	7.4772	53.549
7.780	2.476	0.184950	3.910946	5.922748	0.007781	0.021149	36.79	97.42	9.00	663.98	2400	13.513	7.4876	53.765
7.800	2.483	0.185192	3.926907	5.933138	0.007751	0.021072	36.78	97.42	9.00	665.68	2400	13.568	7.4974	53.985
7.820	2.489	0.185441	3.942822	5.943542	0.007722	0.020996	36.78	97.42	9.00	667.39	2400	13.623	7.5075	54.204
7.840	2.496	0.185691	3.958689	5.953958	0.007693	0.020919	36.78	97.42	9.00	669.10	2400	13.678	7.5176	54.422
7.860	2.502	0.185937	3.974624	5.964353	0.007664	0.020843	36.77	97.42	9.00	670.80	2400	13.733	7.5275	54.641
7.880	2.508	0.186179	3.990616	5.974729	0.007635	0.020768	36.76	97.41	0.00	672.51	2400	13.788	7.5374	54.861
7.900	2.515	0.186422	4.006670	5.985086	0.007606	0.020694	36.76	97.41	0.00	674.22	2400	13.843	7.5472	55.081
7.920	2.521	0.186661	4.022726	5.995440	0.007578	0.020620	36.75	97.41	0.00	675.92	2400	13.899	7.5569	55.302
7.940	2.527	0.186905	4.038742	6.005806	0.007550	0.020546	36.74	97.41	0.00	677.63	2400	13.954	7.5667	55.522
7.960	2.534	0.187139	4.054916	6.016123	0.007521	0.020473	36.74	97.40	0.00	679.34	2400	14.010	7.5762	55.745
7.980	2.540	0.187380	4.071021	6.026459	0.007493	0.020400	36.73	97.40	0.00	681.05	2400	14.066	7.5860	55.966
8.000	2.546	0.187611	4.087268	6.036753	0.007465	0.020328	36.72	97.40	0.00	682.75	2400	14.122	7.5953	56.189
8.020	2.553	0.187846	4.103501	6.047049	0.007437	0.020257	36.71	97.40	0.00	684.46	2400	14.178	7.6048	56.412
8.040	2.559	0.188077	4.119762	6.057335	0.007409	0.020186	36.70	97.39	0.00	686.17	2400	14.234	7.6142	56.636
8.060	2.566	0.188305	4.136088	6.067602	0.007381	0.020115	36.70	97.39	0.00	687.87	2400	14.291	7.6234	56.860
8.080	2.572	0.188533	4.152345	6.077888	0.007354	0.020045	36.69	97.39	0.00	689.58	2400	14.347	7.6326	57.084
